<mzSpecLib>
MS:1003186|library format version=1.0
MS:1003188|library name=spice
MS:1003190|library version=1.0
MS:1001017|release date=7/7/2023 7:06:42 PM
<AttributeSet Spectrum=all>
MS:1000008|ionization type=MS:1000073|electrosprary ionization
MS:1000465|scan polarity=MS:1000130|positive scan
<Spectrum=1>
MS:1003063|universal spectrum identifier=mzspec:USI000000:spice_ph/cal_10ng.raw:scan:795
MS:1003061|library spectrum name=JWH-250-5OH
MS:1000894|retention time=3.53813
MS:1003208|experimental precursor monoisotopic m/z=352.19000
[1]MS:1000045|collision energy=40.0
[1]UO:0000000|unit=UO:0000266|electronvolt
MS:1003059|number of peaks=51
<Analyte=1>
MS:1000041|charge state=1
MS:1000866|molecular formula=C22H25NO2
<Peaks>
51.0236	41921.14
52.3338	18399.55
63.9969	22028.22
65.0390	263790.31
67.0550	30223.43
69.0705	504983.50
74.5264	25105.37
77.0390	117307.05
78.0471	125893.67
78.2767	24682.19
85.0653	44129.83
87.0808	124820.38
91.0546	4938715.00
92.0579	32281.12
93.0703	4039066.50
95.0497	91643.40
103.0546	31422.36
106.0417	61616.02
107.0493	375355.88
109.0650	2526102.50
118.0650	245160.55
119.0605	1306983.88
121.0649	80814008.00
122.0681	1211911.50
129.6649	23031.13
130.0651	2914473.00
131.0491	2273469.50
131.0699	34800.33
132.0810	254987.64
135.0337	46479.04
135.0439	1112392.50
144.0443	231014.09
144.0805	1083481.13
149.0595	141239.42
158.0962	52338.03
171.1041	48832.38
186.1275	1500389.75
204.1381	1171604.25
216.1380	4790471.00
217.1419	138852.80
230.1172	1742078.38
233.0834	39347.97
246.0902	160523.73
247.0991	116021.20
248.1052	52735.21
277.0875	24467.71
302.1530	60953.01
306.1864	41791.95
319.1559	1327439.63
334.1782	192063.28
352.1904	138860.03

<Spectrum=2>
MS:1003063|universal spectrum identifier=mzspec:USI000000:spice_ph/cal_10ng.raw:scan:1057
MS:1003061|library spectrum name=HU-210
MS:1000894|retention time=4.63888
MS:1003208|experimental precursor monoisotopic m/z=387.29000
[1]MS:1000045|collision energy=30.0
[1]UO:0000000|unit=UO:0000266|electronvolt
MS:1003059|number of peaks=31
<Analyte=1>
MS:1000041|charge state=1
MS:1000866|molecular formula=C25H38O3
<Peaks>
55.9397	1711.95
57.0708	4178.89
59.0612	27760.11
60.0643	2916.45
70.5272	1700.63
71.0861	11151.91
72.6973	1561.03
78.0656	1616.47
85.1016	9316.40
88.4184	1724.83
89.0603	16123.91
91.3716	1678.65
93.3114	1734.76
94.9241	1915.08
95.0863	3110.03
104.7801	1765.22
109.6943	2104.61
112.7868	1872.87
113.6302	2116.86
115.0866	2444.01
132.1017	7648.73
133.0857	9301.34
178.2828	1774.47
243.1375	7042.40
261.1484	2280.10
331.1288	2611.93
387.2172	3023.44
387.2880	3783.68
388.2838	3660.32
407.3936	7890.14
407.4477	6573.49

<Spectrum=3>
MS:1003063|universal spectrum identifier=mzspec:USI000000:spice_ph/cal_10ng.raw:scan:1154
MS:1003061|library spectrum name=JWH-018
MS:1000894|retention time=5.06180
MS:1003208|experimental precursor monoisotopic m/z=342.18000
[1]MS:1000045|collision energy=40.0
[1]UO:0000000|unit=UO:0000266|electronvolt
MS:1003059|number of peaks=36
<Analyte=1>
MS:1000041|charge state=1
MS:1000866|molecular formula=C24H23NO
<Peaks>
59.0615	1990.68
60.1686	1451.89
63.6676	1576.34
69.0706	3516.54
71.0862	2369.07
73.0655	3174.36
74.6145	1632.38
75.0234	1930.20
77.0393	2517.86
83.0862	3514.52
86.2447	1833.62
87.0446	2622.41
88.4519	1668.30
95.5753	1919.00
103.0543	2845.73
104.3726	1835.56
105.0337	1977.62
109.1018	1858.12
117.0696	2244.70
126.0452	2992.38
127.0531	34089.48
128.0576	2066.11
144.0443	86622.39
145.0647	99666.99
155.0491	3252326.50
155.0595	172920.50
156.0523	149664.88
156.0618	5788.15
186.2216	7401.83
204.9605	2007.34
214.1225	611469.06
215.1261	36578.93
301.4353	2102.13
342.1847	206389.48
342.3712	15322.10
343.1881	24044.77

<Spectrum=4>
MS:1003063|universal spectrum identifier=mzspec:USI000000:spice_ph/cal_10ng.raw:scan:1111
MS:1003061|library spectrum name=JWH-073
MS:1000894|retention time=4.87640
MS:1003208|experimental precursor monoisotopic m/z=328.17000
[1]MS:1000045|collision energy=30.0
[1]UO:0000000|unit=UO:0000266|electronvolt
MS:1003059|number of peaks=45
<Analyte=1>
MS:1000041|charge state=1
MS:1000866|molecular formula=C23H21NO
<Peaks>
51.4339	1353.64
53.5000	1596.98
54.4549	2967.30
54.4574	7820.22
54.6439	1483.22
57.0708	4437.27
60.0453	1616.12
61.0291	7951.13
62.0609	21662.84
62.3676	1437.01
65.8858	1752.54
69.0705	1926.12
70.8467	1708.00
71.0861	2938.73
81.0702	2655.78
83.0861	3243.70
85.1014	2524.12
89.0602	11369.51
95.0859	1903.54
97.1010	2127.84
98.9846	71730.04
109.1019	2100.55
113.0966	2852.04
116.9945	2060.77
127.0531	29646.67
129.0183	140127.36
133.0857	7078.06
135.0750	2132.22
139.0024	28731.39
144.0444	7538.08
145.0647	14302.77
155.0491	2748891.00
156.0523	79578.38
157.0130	47185.51
185.0807	33969.42
200.1069	579997.31
201.1106	22886.97
228.8813	1867.08
263.1220	1856.33
270.0264	2053.52
310.2732	3251.87
327.3810	85666.77
328.1694	1960335.38
328.3855	11065.79
329.1725	141963.44

<Spectrum=5>
MS:1003063|universal spectrum identifier=mzspec:USI000000:spice_ph/cal_10ng.raw:scan:891
MS:1003061|library spectrum name=JWH-018-COOH
MS:1000894|retention time=3.93728
MS:1003208|experimental precursor monoisotopic m/z=372.16000
[1]MS:1000045|collision energy=30.0
[1]UO:0000000|unit=UO:0000266|electronvolt
MS:1003059|number of peaks=43
<Analyte=1>
MS:1000041|charge state=1
MS:1000866|molecular formula=C25H24NO3
<Peaks>
59.0612	15324.01
67.2382	8108.25
68.0978	7770.55
69.0705	20234.88
71.0862	12974.81
75.0232	9181.44
77.0390	17505.99
81.0702	16308.42
83.0860	15901.47
84.5888	9065.15
87.2837	8696.21
95.0853	10375.69
97.1015	17179.97
101.0600	50123.91
109.1015	13705.23
111.1168	14214.62
126.0228	9461.32
126.0448	11007.91
127.0536	189719.69
130.5508	10475.03
144.0442	176708.42
145.0647	116634.23
154.0419	11567.95
155.0491	24565270.00
156.0522	972603.81
183.5131	9367.59
226.0859	540730.38
228.3960	11616.72
244.0965	1521427.38
245.1001	89918.82
268.2628	124988.25
269.2662	51543.26
271.0994	35488.99
272.1060	62751.61
272.5868	10466.73
283.0544	9669.04
326.1542	10833.87
336.1342	11399.30
354.1480	307764.16
355.1536	21995.49
372.1589	4545801.50
373.1618	499894.84
373.2094	20403.29

<Spectrum=6>
MS:1003063|universal spectrum identifier=mzspec:USI000000:spice_ph/cal_10ng.raw:scan:930
MS:1003061|library spectrum name=JWH-019-5,6OH
MS:1000894|retention time=4.09513
MS:1003208|experimental precursor monoisotopic m/z=372.19000
[1]MS:1000045|collision energy=35.0
[1]UO:0000000|unit=UO:0000266|electronvolt
MS:1003059|number of peaks=36
<Analyte=1>
MS:1000041|charge state=1
MS:1000866|molecular formula=C25H25NO
<Peaks>
50.8111	22739.57
51.0237	44250.79
55.0551	21383.71
57.2794	24672.96
62.4584	25299.91
66.2550	22997.51
74.0156	30349.88
75.0234	51879.79
77.0393	117850.48
101.0384	35361.41
106.5908	34477.40
126.0455	50748.43
127.0535	1069850.63
127.0624	35928.64
130.0650	64709.18
131.4956	33258.58
132.0809	51546.95
144.0444	126054.78
145.0649	508659.75
154.0413	70659.14
154.8965	34133.64
155.0490	120021408.00
156.0522	3000287.75
200.1431	548810.94
226.1218	466864.09
244.1330	1921183.13
245.1368	60544.87
272.1060	58929.54
284.1063	850811.50
285.1091	37987.37
354.1845	2298760.25
355.1881	185121.14
371.2744	252184.42
372.1952	3573536.75
372.2773	137026.25
373.1990	218253.50

<Spectrum=7>
MS:1003063|universal spectrum identifier=mzspec:USI000000:spice_ph/cal_10ng.raw:scan:894
MS:1003061|library spectrum name=JWH-018-4OH
MS:1000894|retention time=3.94745
MS:1003208|experimental precursor monoisotopic m/z=358.18000
[1]MS:1000045|collision energy=35.0
[1]UO:0000000|unit=UO:0000266|electronvolt
MS:1003059|number of peaks=43
<Analyte=1>
MS:1000041|charge state=1
MS:1000866|molecular formula=C24H24NO5
<Peaks>
51.0236	26543.89
57.9584	14904.36
62.1825	16217.05
62.8370	14778.87
64.1596	16727.31
65.4661	19493.33
68.1606	16088.01
69.0705	460169.41
69.3697	18633.23
71.2273	15086.62
74.4807	17109.48
75.0233	31917.15
77.0393	98630.64
85.0651	27971.33
87.0807	24025.34
106.1053	15871.08
126.0457	32800.48
127.0535	668272.25
127.0623	26478.07
130.0651	44580.69
138.7420	20536.94
144.0442	1121929.63
145.0648	822179.56
154.0420	33425.70
155.0490	74941936.00
156.0522	2288891.25
168.4902	21476.67
186.1273	261682.81
199.3155	20183.58
212.1067	466273.84
230.1173	1625244.88
231.1204	40928.68
254.0970	21751.75
256.1125	107057.94
272.1067	453079.50
273.1095	34249.04
284.1065	1956005.75
285.1097	74918.88
340.1688	700279.81
341.1721	82585.30
358.1796	1868572.38
359.1840	109401.77
359.2222	25122.54

<Spectrum=8>
MS:1003063|universal spectrum identifier=mzspec:USI000000:spice_ph/cal_10ng.raw:scan:863
MS:1003061|library spectrum name=JWH-073-COOH
MS:1000894|retention time=3.82846
MS:1003208|experimental precursor monoisotopic m/z=358.14000
[1]MS:1000045|collision energy=45.0
[1]UO:0000000|unit=UO:0000266|electronvolt
MS:1003059|number of peaks=39
<Analyte=1>
MS:1000041|charge state=1
MS:1000866|molecular formula=C25H22NO3
<Peaks>
51.0217	6218.31
51.0236	10572.90
59.0612	9901.06
67.0549	8462.23
69.0705	14132.95
75.0234	14837.40
77.0392	16515.89
81.0704	12157.28
87.0392	9990.80
87.0445	310796.50
92.1396	7369.41
99.0808	8172.55
101.0384	14823.40
107.0856	7595.35
120.8822	9174.07
121.1007	7680.48
126.0456	7974.67
127.0535	216401.39
127.0625	8028.25
129.1583	8009.58
144.0443	648549.13
145.0648	295706.72
155.0491	22522760.00
156.0522	769735.75
194.3887	9342.56
212.0705	515080.69
213.0733	14140.10
230.0810	2100815.00
231.0845	81325.38
231.7990	9721.42
254.0957	10261.18
270.0902	10792.78
271.0996	57976.94
272.1060	82165.05
340.1326	37481.72
345.3799	9225.30
357.2611	50701.27
358.1433	1554541.75
359.1455	119712.60

<Spectrum=9>
MS:1003063|universal spectrum identifier=mzspec:USI000000:spice_ph/cal_10ng.raw:scan:874
MS:1003061|library spectrum name=JWH-073-3OH
MS:1000894|retention time=3.87110
MS:1003208|experimental precursor monoisotopic m/z=344.16000
[1]MS:1000045|collision energy=35.0
[1]UO:0000000|unit=UO:0000266|electronvolt
MS:1003059|number of peaks=68
<Analyte=19>
MS:1000041|charge state=1
MS:1000866|molecular formula=C24H22NO3
<Peaks>
51.0237	3561.28
55.0550	8421.19
57.0707	2739.66
58.0658	2129.15
59.0611	5143.79
67.0547	2121.08
69.0707	2574.61
73.0654	4947.67
75.0234	7106.42
77.0394	12411.36
81.0701	2973.75
83.0497	2191.15
89.0599	18151.91
91.3956	2060.12
93.0699	2546.83
95.0857	4467.38
95.4750	1721.20
97.0648	2467.15
103.0546	9316.38
106.0655	65990.63
109.1015	4261.90
117.0698	12757.14
121.1010	2649.27
123.1168	2687.67
126.0446	7349.36
127.0419	4148.56
127.0537	111404.77
129.0689	2301.82
130.0650	93590.65
139.0390	2542.95
139.0525	2480.76
141.0698	63228.48
144.0442	83428.60
145.0647	527097.25
146.0587	7821.09
146.0682	12791.79
155.0490	8005763.00
155.0599	683804.88
156.0523	298982.25
156.0632	18887.59
158.0598	294913.72
158.0734	5175.51
159.0627	8948.10
167.0490	10227.96
198.0918	17117.58
203.3770	2308.21
216.1017	499212.69
217.1060	18404.11
229.1024	2669.99
240.2329	4858.75
241.0851	5734.51
254.0954	17397.63
255.1033	9428.19
256.1118	61075.90
258.1307	2789.72
266.0961	36287.75
267.1028	17701.08
268.1115	39105.10
269.0824	16834.47
270.0899	11751.50
271.0968	2503.81
272.1060	4256.63
282.0921	4248.00
283.0982	2983.21
284.1065	345977.63
285.1095	21376.58
286.1216	12770.13
344.1632	37060.93

<Spectrum=10>
MS:1003063|universal spectrum identifier=mzspec:USI000000:spice_ph/cal_10ng.raw:scan:912
MS:1003061|library spectrum name=JWH-018-4OH-D5
MS:1000894|retention time=4.02449
MS:1003208|experimental precursor monoisotopic m/z=363.21000
[1]MS:1000045|collision energy=35.0
[1]UO:0000000|unit=UO:0000266|electronvolt
MS:1003059|number of peaks=33
<Analyte=1>
MS:1000041|charge state=1
<Peaks>
55.8589	1492.34
59.0612	29520.89
66.1368	1666.85
69.0706	17507.63
69.9678	1676.53
81.0706	2970.44
85.0655	2239.78
90.9772	2637.30
93.0705	1697.21
95.0860	2675.00
97.0650	1934.47
109.1014	2065.02
119.0858	3350.76
127.0542	10079.45
145.0649	28963.05
146.0709	2054.60
148.0690	4546.33
149.0756	18741.88
155.0491	1130517.63
155.0595	52739.70
156.0546	122932.00
156.0680	3352.47
157.0597	3183.48
164.9210	3486.71
216.1314	1937.01
217.1381	2073.01
234.1421	3524.60
235.1483	15669.04
277.1376	3250.67
288.1315	14888.58
289.1379	25825.34
345.2004	3198.29
363.2108	9793.98

<Spectrum=11>
MS:1003063|universal spectrum identifier=mzspec:USI000000:spice_ph/cal_10ng.raw:scan:876
MS:1003061|library spectrum name=JWH-073-3OH-D5
MS:1000894|retention time=3.87681
MS:1003208|experimental precursor monoisotopic m/z=349.20000
[1]MS:1000045|collision energy=35.0
[1]UO:0000000|unit=UO:0000266|electronvolt
MS:1003059|number of peaks=74
<Analyte=1>
MS:1000041|charge state=1
<Peaks>
50.0136	6112.16
50.0158	7548.90
50.9933	6369.03
51.0217	9002.23
51.0238	24598.78
59.0610	18940.02
60.5347	7726.85
71.3661	7504.50
74.0154	10532.47
75.0233	14942.28
77.0394	62170.25
79.7510	7899.70
81.0638	7591.58
101.0388	12789.70
109.0844	77324.68
110.0904	472305.41
126.0456	44791.07
127.0403	11295.24
127.0418	13897.93
127.0534	414827.31
127.0626	14123.51
128.0601	55956.32
133.0834	10906.86
134.0906	107820.46
135.0965	118723.38
139.0520	12625.64
141.0699	75807.27
142.0757	203937.42
143.0821	18997.60
145.0646	490468.44
146.0711	73204.58
148.0686	20034.40
149.0757	37759.40
154.0416	16453.31
154.8451	12114.13
155.0489	43269912.00
156.0549	6115923.50
157.0600	182803.89
161.0794	16119.55
162.0852	165784.66
163.0911	326103.69
176.1364	42654.01
177.1432	44181.22
201.1102	55655.40
202.1156	56143.93
219.1212	74090.01
220.1266	902168.69
221.1329	2315545.50
222.1357	54900.77
258.1202	35012.64
259.1297	12533.21
260.1367	45077.89
261.1447	18788.08
263.1584	49242.76
269.1142	10216.40
270.1201	17884.51
271.1293	14824.12
272.1365	115283.68
273.1442	106990.98
274.1200	9999.67
275.1236	15385.52
276.1313	47199.88
287.1253	158500.27
288.1313	1151654.75
289.1376	1187331.50
290.1441	78298.49
291.1536	344801.00
292.1565	11956.25
312.1644	9887.75
330.1770	43139.06
331.1829	72594.64
348.1878	90111.50
349.1952	4856722.50
350.1979	196809.92
